Wavenumber,Intensity
650.4205,0.379883
652.2841,0.380683
654.1478,0.380065
656.0115,0.379819
657.8751,0.380587
659.7388,0.378891
661.6025,0.368984
663.4661,0.362919
665.3298,0.359355
667.1935,0.359848
669.0571,0.366254
670.9208,0.361470
672.7845,0.357141
674.6481,0.355821
676.5118,0.352612
678.3755,0.350412
680.2392,0.345047
682.1028,0.341167
683.9665,0.339306
685.8302,0.338304
687.6938,0.336250
689.5575,0.334273
691.4212,0.332735
693.2848,0.330958
695.1485,0.327570
697.0122,0.326556
698.8758,0.324205
700.7395,0.320418
702.6032,0.317225
704.4669,0.314243
706.3305,0.310953
708.1942,0.308674
710.0579,0.305188
711.9215,0.302625
713.7852,0.299497
715.6489,0.295509
717.5125,0.292345
719.3762,0.291089
721.2399,0.289301
723.1035,0.287114
724.9672,0.284677
726.8309,0.281382
728.6945,0.277290
730.5582,0.275972
732.4219,0.275004
734.2856,0.273371
736.1492,0.271130
738.0129,0.269574
739.8766,0.268044
741.7402,0.266668
743.6039,0.264553
745.4676,0.262185
747.3312,0.259751
749.1949,0.257078
751.0586,0.254060
752.9222,0.251592
754.7859,0.250049
756.6496,0.249006
758.5132,0.245867
760.3769,0.243177
762.2406,0.241455
764.1043,0.239444
765.9679,0.236707
767.8316,0.235119
769.6953,0.233492
771.5589,0.231209
773.4226,0.228752
775.2863,0.226238
777.1499,0.223565
779.0136,0.221632
780.8773,0.219647
782.7409,0.217665
784.6046,0.215541
786.4683,0.213049
788.3320,0.210192
790.1956,0.208230
792.0593,0.206418
793.9230,0.204577
795.7866,0.202589
797.6503,0.200577
799.5140,0.198804
801.3776,0.197361
803.2413,0.195195
805.1050,0.193186
806.9686,0.191853
808.8323,0.190364
810.6960,0.188576
812.5596,0.187043
814.4233,0.185264
816.2870,0.183364
818.1507,0.181413
820.0143,0.179967
821.8780,0.178141
823.7417,0.175390
825.6053,0.172562
827.4690,0.170358
829.3327,0.168204
831.1963,0.166078
833.0600,0.164293
834.9237,0.162610
836.7873,0.160536
838.6510,0.158671
840.5147,0.156813
842.3784,0.154998
844.2420,0.153237
846.1057,0.151739
847.9694,0.150270
849.8330,0.148900
851.6967,0.147742
853.5604,0.146598
855.4240,0.145342
857.2877,0.144157
859.1514,0.143231
861.0150,0.142266
862.8787,0.141233
864.7424,0.140218
866.6060,0.138982
868.4697,0.137983
870.3334,0.137344
872.1971,0.136513
874.0607,0.135302
875.9244,0.134020
877.7881,0.132707
879.6517,0.131285
881.5154,0.129557
883.3791,0.127947
885.2427,0.126615
887.1064,0.125453
888.9701,0.124292
890.8337,0.123319
892.6974,0.122593
894.5611,0.121900
896.4247,0.120711
898.2884,0.119387
900.1521,0.118130
902.0158,0.117074
903.8794,0.116037
905.7431,0.115154
907.6068,0.114571
909.4704,0.114413
911.3341,0.114768
913.1978,0.115461
915.0614,0.115941
916.9251,0.116322
918.7888,0.116777
920.6524,0.117425
922.5161,0.118063
924.3798,0.118607
926.2435,0.118898
928.1071,0.118754
929.9708,0.118208
931.8345,0.117823
933.6981,0.117324
935.5618,0.116837
937.4255,0.116514
939.2891,0.116429
941.1528,0.116546
943.0165,0.116861
944.8801,0.116959
946.7438,0.116805
948.6075,0.116372
950.4711,0.115683
952.3348,0.114989
954.1985,0.114670
956.0622,0.114617
957.9258,0.115144
959.7895,0.116290
961.6532,0.117833
963.5168,0.119770
965.3805,0.122027
967.2442,0.124193
969.1078,0.126078
970.9715,0.127315
972.8352,0.128156
974.6988,0.129064
976.5625,0.130336
978.4262,0.132096
980.2899,0.134375
982.1535,0.136858
984.0172,0.139167
985.8809,0.141059
987.7445,0.142383
989.6082,0.143134
991.4719,0.143618
993.3355,0.144163
995.1992,0.144991
997.0629,0.146080
998.9265,0.147386
1000.7902,0.149007
1002.6539,0.150986
1004.5175,0.153414
1006.3812,0.156799
1008.2449,0.161127
1010.1086,0.166191
1011.9722,0.171849
1013.8359,0.177903
1015.6996,0.183987
1017.5632,0.189652
1019.4269,0.194401
1021.2906,0.198127
1023.1542,0.200867
1025.0179,0.203174
1026.8816,0.205539
1028.7452,0.208301
1030.6089,0.211044
1032.4726,0.213601
1034.3362,0.215923
1036.1999,0.217894
1038.0636,0.219556
1039.9273,0.221071
1041.7909,0.222503
1043.6546,0.223970
1045.5183,0.225500
1047.3819,0.227069
1049.2456,0.228603
1051.1093,0.230242
1052.9729,0.231954
1054.8366,0.233637
1056.7003,0.235330
1058.5639,0.236927
1060.4276,0.238323
1062.2913,0.239644
1064.1550,0.241010
1066.0186,0.242280
1067.8823,0.243529
1069.7460,0.244804
1071.6096,0.245899
1073.4733,0.246299
1075.3370,0.245494
1077.2006,0.243622
1079.0643,0.240349
1080.9280,0.235467
1082.7916,0.229249
1084.6553,0.222196
1086.5190,0.214984
1088.3826,0.208120
1090.2463,0.201850
1092.1100,0.196616
1093.9737,0.192244
1095.8373,0.188377
1097.7010,0.184963
1099.5647,0.181828
1101.4283,0.178995
1103.2920,0.176589
1105.1557,0.174546
1107.0193,0.173007
1108.8830,0.171884
1110.7467,0.171109
1112.6103,0.170504
1114.4740,0.169697
1116.3377,0.168690
1118.2014,0.167346
1120.0650,0.165545
1121.9287,0.163600
1123.7924,0.161597
1125.6560,0.159456
1127.5197,0.157264
1129.3834,0.154860
1131.2470,0.152186
1133.1107,0.149495
1134.9744,0.146865
1136.8380,0.144347
1138.7017,0.142184
1140.5654,0.140529
1142.4290,0.139264
1144.2927,0.138506
1146.1564,0.138294
1148.0201,0.138518
1149.8837,0.138802
1151.7474,0.138934
1153.6111,0.138945
1155.4747,0.138673
1157.3384,0.137947
1159.2021,0.136980
1161.0657,0.135877
1162.9294,0.134585
1164.7931,0.133191
1166.6567,0.131531
1168.5204,0.129330
1170.3841,0.126752
1172.2477,0.123763
1174.1114,0.120267
1175.9751,0.116643
1177.8388,0.113436
1179.7024,0.110829
1181.5661,0.109086
1183.4298,0.108116
1185.2934,0.107802
1187.1571,0.107919
1189.0208,0.108329
1190.8844,0.108999
1192.7481,0.109818
1194.6118,0.110821
1196.4754,0.112168
1198.3391,0.113687
1200.2028,0.115395
1202.0665,0.117393
1203.9301,0.119524
1205.7938,0.121550
1207.6575,0.123392
1209.5211,0.125154
1211.3848,0.126902
1213.2485,0.128741
1215.1121,0.130755
1216.9758,0.133035
1218.8395,0.135442
1220.7031,0.137879
1222.5668,0.140327
1224.4305,0.142734
1226.2941,0.144934
1228.1578,0.146928
1230.0215,0.148803
1231.8852,0.150419
1233.7488,0.151700
1235.6125,0.152593
1237.4762,0.153128
1239.3398,0.153184
1241.2035,0.152917
1243.0672,0.152414
1244.9308,0.151512
1246.7945,0.150230
1248.6582,0.148782
1250.5218,0.147278
1252.3855,0.145865
1254.2492,0.144448
1256.1129,0.142894
1257.9765,0.141423
1259.8402,0.140341
1261.7039,0.139371
1263.5675,0.138446
1265.4312,0.137505
1267.2949,0.136829
1269.1585,0.136280
1271.0222,0.135821
1272.8859,0.135419
1274.7495,0.135245
1276.6132,0.135212
1278.4769,0.135163
1280.3405,0.135241
1282.2042,0.135318
1284.0679,0.135229
1285.9316,0.135256
1287.7952,0.135615
1289.6589,0.135929
1291.5226,0.136114
1293.3862,0.136529
1295.2499,0.137127
1297.1136,0.137668
1298.9772,0.138277
1300.8409,0.138992
1302.7046,0.139726
1304.5682,0.140465
1306.4319,0.141306
1308.2956,0.142321
1310.1592,0.143369
1312.0229,0.144610
1313.8866,0.145368
1315.7503,0.145543
1317.6139,0.145989
1319.4776,0.146261
1321.3413,0.145761
1323.2049,0.145251
1325.0686,0.145053
1326.9323,0.144890
1328.7959,0.144918
1330.6596,0.144850
1332.5233,0.144530
1334.3869,0.144001
1336.2506,0.144046
1338.1143,0.145439
1339.9780,0.147094
1341.8416,0.146983
1343.7053,0.146366
1345.5690,0.145954
1347.4326,0.145479
1349.2963,0.145192
1351.1600,0.144941
1353.0236,0.145240
1354.8873,0.146185
1356.7510,0.146658
1358.6146,0.146979
1360.4783,0.149170
1362.3420,0.153669
1364.2056,0.156633
1366.0693,0.158474
1367.9330,0.162155
1369.7967,0.165354
1371.6603,0.168417
1373.5240,0.174560
1375.3877,0.180014
1377.2513,0.182865
1379.1150,0.186393
1380.9787,0.189590
1382.8423,0.192044
1384.7060,0.195207
1386.5697,0.201551
1388.4333,0.206249
1390.2970,0.206507
1392.1607,0.208316
1394.0244,0.214665
1395.8880,0.220048
1397.7517,0.223270
1399.6154,0.226971
1401.4790,0.226834
1403.3427,0.228012
1405.2064,0.230433
1407.0700,0.229536
1408.9337,0.227183
1410.7974,0.225057
1412.6610,0.221201
1414.5247,0.215922
1416.3884,0.211935
1418.2520,0.212537
1420.1157,0.209520
1421.9794,0.202775
1423.8431,0.199524
1425.7067,0.196018
1427.5704,0.193324
1429.4341,0.193557
1431.2977,0.192964
1433.1614,0.191217
1435.0251,0.194204
1436.8887,0.201691
1438.7524,0.201105
1440.6161,0.199008
1442.4797,0.198575
1444.3434,0.198066
1446.2071,0.198811
1448.0707,0.200144
1449.9344,0.198053
1451.7981,0.194336
1453.6618,0.190711
1455.5254,0.193277
1457.3891,0.199719
1459.2528,0.193050
1461.1164,0.184812
1462.9801,0.182324
1464.8438,0.183585
1466.7074,0.179721
1468.5711,0.173475
1470.4348,0.170918
1472.2984,0.172480
1474.1621,0.170089
1476.0258,0.166044
1477.8895,0.162339
1479.7531,0.160592
1481.6168,0.160679
1483.4805,0.159965
1485.3441,0.160626
1487.2078,0.165992
1489.0715,0.175149
1490.9351,0.180606
1492.7988,0.179706
1494.6625,0.183845
1496.5261,0.196093
1498.3898,0.205111
1500.2535,0.206596
1502.1171,0.205246
1503.9808,0.208468
1505.8445,0.231492
1507.7082,0.257723
1509.5718,0.257262
1511.4355,0.259174
1513.2992,0.264921
1515.1628,0.272069
1517.0265,0.279949
1518.8902,0.282698
1520.7538,0.292569
1522.6175,0.302324
1524.4812,0.304520
1526.3448,0.311044
1528.2085,0.315252
1530.0722,0.316007
1531.9359,0.321974
1533.7995,0.331024
1535.6632,0.327141
1537.5269,0.325014
1539.3905,0.338864
1541.2542,0.349931
1543.1179,0.345466
1544.9815,0.340436
1546.8452,0.332685
1548.7089,0.326307
1550.5725,0.319079
1552.4362,0.309915
1554.2999,0.299351
1556.1635,0.290080
1558.0272,0.291891
1559.8909,0.287984
1561.7546,0.270440
1563.6182,0.259225
1565.4819,0.249942
1567.3456,0.242573
1569.2092,0.238170
1571.0729,0.229980
1572.9366,0.221158
1574.8002,0.218626
1576.6639,0.217742
1578.5276,0.211356
1580.3912,0.206172
1582.2549,0.203756
1584.1186,0.202280
1585.9822,0.201387
1587.8459,0.201433
1589.7096,0.202821
1591.5733,0.205169
1593.4369,0.208813
1595.3006,0.212997
1597.1643,0.217099
1599.0279,0.221906
1600.8916,0.228362
1602.7553,0.236009
1604.6189,0.244028
1606.4826,0.253030
1608.3463,0.264301
1610.2099,0.274790
1612.0736,0.282938
1613.9373,0.291665
1615.8010,0.308239
1617.6646,0.324616
1619.5283,0.328395
1621.3920,0.334735
1623.2556,0.348532
1625.1193,0.357257
1626.9830,0.362726
1628.8466,0.367574
1630.7103,0.366770
1632.5740,0.364760
1634.4376,0.369410
1636.3013,0.373042
1638.1650,0.364201
1640.0286,0.353865
1641.8923,0.344756
1643.7560,0.336872
1645.6197,0.332009
1647.4833,0.323281
1649.3470,0.309781
1651.2107,0.302317
1653.0743,0.299356
1654.9380,0.284866
1656.8017,0.270543
1658.6653,0.258018
1660.5290,0.247246
1662.3927,0.237174
1664.2563,0.225362
1666.1200,0.214573
1667.9837,0.206372
1669.8474,0.197767
1671.7110,0.187866
1673.5747,0.179691
1675.4384,0.171763
1677.3020,0.162473
1679.1657,0.154234
1681.0294,0.145994
1682.8930,0.139778
1684.7567,0.131917
1686.6204,0.122867
1688.4840,0.115304
1690.3477,0.107190
1692.2114,0.099051
1694.0750,0.092299
1695.9387,0.084759
1697.8024,0.077696
1699.6661,0.073195
1701.5297,0.067208
1703.3934,0.062955
1705.2571,0.059728
1707.1207,0.056419
1708.9844,0.053387
1710.8481,0.050653
1712.7117,0.048462
1714.5754,0.046663
1716.4391,0.044978
1718.3027,0.042836
1720.1664,0.040220
1722.0301,0.038317
1723.8937,0.036687
1725.7574,0.035082
1727.6211,0.033599
1729.4848,0.032331
1731.3484,0.031073
1733.2121,0.030347
1735.0758,0.028872
1736.9394,0.027595
1738.8031,0.026834
1740.6668,0.025851
1742.5304,0.024870
1744.3941,0.023861
1746.2578,0.022948
1748.1214,0.022300
1749.9851,0.021490
1751.8488,0.020117
1753.7125,0.018725
1755.5761,0.017752
1757.4398,0.016803
1759.3035,0.016278
1761.1671,0.015810
1763.0308,0.015210
1764.8945,0.014791
1766.7581,0.014805
1768.6218,0.014575
1770.4855,0.014025
1772.3491,0.013552
1774.2128,0.013209
1776.0765,0.012803
1777.9401,0.012545
1779.8038,0.012383
1781.6675,0.011977
1783.5312,0.011724
1785.3948,0.011529
1787.2585,0.011516
1789.1222,0.011604
1790.9858,0.011417
1792.8495,0.010926
1794.7132,0.010622
1796.5768,0.010533
1798.4405,0.010420
1800.3042,0.010166
1802.1678,0.009949
1804.0315,0.010026
1805.8952,0.010113
1807.7589,0.010128
1809.6225,0.009892
1811.4862,0.009617
1813.3499,0.009488
1815.2135,0.009412
1817.0772,0.009195
1818.9409,0.009121
1820.8045,0.009313
1822.6682,0.009550
1824.5319,0.009469
1826.3955,0.009298
1828.2592,0.009294
1830.1229,0.008936
1831.9865,0.008731
1833.8502,0.008941
1835.7139,0.008918
1837.5776,0.008721
1839.4412,0.008400
1841.3049,0.008724
1843.1686,0.009042
1845.0322,0.008704
1846.8959,0.008502
1848.7596,0.008546
1850.6232,0.008484
1852.4869,0.008427
1854.3506,0.008278
1856.2142,0.008059
1858.0779,0.007966
1859.9416,0.008140
1861.8052,0.008134
1863.6689,0.008196
1865.5326,0.008357
1867.3963,0.008677
1869.2599,0.008529
1871.1236,0.008091
1872.9873,0.007599
1874.8509,0.007796
1876.7146,0.008390
1878.5783,0.008790
1880.4419,0.008632
1882.3056,0.008514
1884.1693,0.008239
1886.0329,0.008095
1887.8966,0.008143
1889.7603,0.008063
1891.6240,0.007640
1893.4876,0.007539
1895.3513,0.007735
1897.2150,0.008172
1899.0786,0.008136
1900.9423,0.008251
1902.8060,0.008382
1904.6696,0.008695
1906.5333,0.008521
1908.3970,0.008339
1910.2606,0.008310
1912.1243,0.008563
1913.9880,0.008179
1915.8516,0.007798
1917.7153,0.007767
1919.5790,0.007588
1921.4427,0.007412
1923.3063,0.007447
1925.1700,0.007513
1927.0337,0.007653
1928.8973,0.007828
1930.7610,0.008056
1932.6247,0.007680
1934.4883,0.007745
1936.3520,0.007649
1938.2157,0.007671
1940.0793,0.007885
1941.9430,0.008106
1943.8067,0.008315
1945.6704,0.007913
1947.5340,0.006917
1949.3977,0.007133
1951.2614,0.007528
1953.1250,0.008032
1954.9887,0.008156
1956.8524,0.007707
1958.7160,0.007881
1960.5797,0.008364
1962.4434,0.007714
1964.3070,0.008038
1966.1707,0.008202
1968.0344,0.008269
1969.8980,0.007653
1971.7617,0.007405
1973.6254,0.007560
1975.4891,0.008409
1977.3527,0.009567
1979.2164,0.010415
1981.0801,0.009948
1982.9437,0.009737
1984.8074,0.009567
1986.6711,0.010224
1988.5347,0.011279
1990.3984,0.011908
1992.2621,0.010867
1994.1257,0.009862
1995.9894,0.009738
1997.8531,0.010547
1999.7167,0.011040
2001.5804,0.010925
2003.4441,0.010306
2005.3078,0.010524
2007.1714,0.009945
2009.0351,0.010451
2010.8988,0.011127
2012.7624,0.011320
2014.6261,0.011723
2016.4898,0.012605
2018.3534,0.012362
2020.2171,0.011536
2022.0808,0.011890
2023.9444,0.013249
2025.8081,0.013167
2027.6718,0.013434
2029.5355,0.013652
2031.3991,0.013866
2033.2628,0.015782
2035.1265,0.017140
2036.9901,0.016554
2038.8538,0.017312
2040.7175,0.017489
2042.5811,0.017320
2044.4448,0.017497
2046.3085,0.019122
2048.1721,0.021107
2050.0358,0.021498
2051.8995,0.020951
2053.7631,0.021624
2055.6268,0.022093
2057.4905,0.022058
2059.3542,0.021419
2061.2178,0.021594
2063.0815,0.022720
2064.9452,0.023084
2066.8088,0.022662
2068.6725,0.023096
2070.5362,0.022814
2072.3998,0.022183
2074.2635,0.021932
2076.1272,0.022090
2077.9908,0.022463
2079.8545,0.021663
2081.7182,0.019785
2083.5819,0.018919
2085.4455,0.019356
2087.3092,0.019670
2089.1729,0.019025
2091.0365,0.018595
2092.9002,0.018331
2094.7639,0.018230
2096.6275,0.018314
2098.4912,0.018575
2100.3549,0.018608
2102.2185,0.018943
2104.0822,0.018876
2105.9459,0.018736
2107.8095,0.018028
2109.6732,0.017881
2111.5369,0.018434
2113.4006,0.018734
2115.2642,0.018167
2117.1279,0.017711
2118.9916,0.017850
2120.8552,0.018048
2122.7189,0.017735
2124.5826,0.017842
2126.4462,0.017486
2128.3099,0.017087
2130.1736,0.016453
2132.0372,0.016840
2133.9009,0.017329
2135.7646,0.017661
2137.6282,0.017633
2139.4919,0.016991
2141.3556,0.015832
2143.2193,0.016031
2145.0829,0.016250
2146.9466,0.016207
2148.8103,0.016455
2150.6739,0.017479
2152.5376,0.016568
2154.4013,0.016086
2156.2649,0.016479
2158.1286,0.017311
2159.9923,0.018384
2161.8559,0.019362
2163.7196,0.019032
2165.5833,0.018798
2167.4470,0.017957
2169.3106,0.017284
2171.1743,0.016618
2173.0380,0.016689
2174.9016,0.016531
2176.7653,0.016209
2178.6290,0.016141
2180.4926,0.016336
2182.3563,0.016753
2184.2200,0.017150
2186.0836,0.016337
2187.9473,0.017159
2189.8110,0.017852
2191.6746,0.016813
2193.5383,0.016131
2195.4020,0.016410
2197.2657,0.016480
2199.1293,0.017152
2200.9930,0.017118
2202.8567,0.017006
2204.7203,0.016415
2206.5840,0.016140
2208.4477,0.017096
2210.3113,0.018227
2212.1750,0.017728
2214.0387,0.016940
2215.9023,0.016238
2217.7660,0.016253
2219.6297,0.016564
2221.4934,0.016548
2223.3570,0.016353
2225.2207,0.016189
2227.0844,0.015741
2228.9480,0.016001
2230.8117,0.016324
2232.6754,0.016415
2234.5390,0.016180
2236.4027,0.016324
2238.2664,0.016146
2240.1300,0.016096
2241.9937,0.015526
2243.8574,0.015355
2245.7210,0.015481
2247.5847,0.015807
2249.4484,0.015285
2251.3121,0.014457
2253.1757,0.014237
2255.0394,0.015216
2256.9031,0.015865
2258.7667,0.016082
2260.6304,0.015629
2262.4941,0.014980
2264.3577,0.014806
2266.2214,0.015177
2268.0851,0.015269
2269.9487,0.015171
2271.8124,0.014758
2273.6761,0.014519
2275.5397,0.014791
2277.4034,0.015203
2279.2671,0.015114
2281.1308,0.014774
2282.9944,0.014619
2284.8581,0.014889
2286.7218,0.014991
2288.5854,0.014861
2290.4491,0.014313
2292.3128,0.014088
2294.1764,0.013951
2296.0401,0.013913
2297.9038,0.013757
2299.7674,0.013695
2301.6311,0.013821
2303.4948,0.013945
2305.3585,0.013726
2307.2221,0.013683
2309.0858,0.013541
2310.9495,0.013541
2312.8131,0.013484
2314.6768,0.013399
2316.5405,0.013731
2318.4041,0.014382
2320.2678,0.014299
2322.1315,0.014009
2323.9951,0.013813
2325.8588,0.013560
2327.7225,0.012962
2329.5861,0.012958
2331.4498,0.013181
2333.3135,0.012981
2335.1772,0.012701
2337.0408,0.012724
2338.9045,0.013008
2340.7682,0.013678
2342.6318,0.013275
2344.4955,0.012857
2346.3592,0.012674
2348.2228,0.012409
2350.0865,0.012179
2351.9502,0.012067
2353.8138,0.012087
2355.6775,0.013053
2357.5412,0.013403
2359.4049,0.013390
2361.2685,0.013180
2363.1322,0.013313
2364.9959,0.012945
2366.8595,0.012605
2368.7232,0.013064
2370.5869,0.012966
2372.4505,0.012518
2374.3142,0.012912
2376.1779,0.012794
2378.0415,0.012314
2379.9052,0.011907
2381.7689,0.012031
2383.6325,0.012071
2385.4962,0.011720
2387.3599,0.011910
2389.2236,0.012254
2391.0872,0.012270
2392.9509,0.012263
2394.8146,0.012061
2396.6782,0.011898
2398.5419,0.011935
2400.4056,0.012187
2402.2692,0.012346
2404.1329,0.012566
2405.9966,0.012727
2407.8602,0.012694
2409.7239,0.012496
2411.5876,0.012452
2413.4512,0.012312
2415.3149,0.012473
2417.1786,0.012809
2419.0423,0.013047
2420.9059,0.012979
2422.7696,0.012866
2424.6333,0.012745
2426.4969,0.012917
2428.3606,0.013047
2430.2243,0.013322
2432.0879,0.013510
2433.9516,0.013553
2435.8153,0.013607
2437.6789,0.013991
2439.5426,0.014013
2441.4063,0.013772
2443.2700,0.013857
2445.1336,0.013961
2446.9973,0.013868
2448.8610,0.013999
2450.7246,0.014126
2452.5883,0.013960
2454.4520,0.014035
2456.3156,0.014209
2458.1793,0.014317
2460.0430,0.014393
2461.9066,0.014070
2463.7703,0.013924
2465.6340,0.014001
2467.4976,0.014264
2469.3613,0.014643
2471.2250,0.014952
2473.0887,0.015151
2474.9523,0.015169
2476.8160,0.014783
2478.6797,0.014744
2480.5433,0.015217
2482.4070,0.015656
2484.2707,0.015200
2486.1343,0.015205
2487.9980,0.015757
2489.8617,0.015973
2491.7253,0.015668
2493.5890,0.015935
2495.4527,0.015917
2497.3164,0.015690
2499.1800,0.015892
2501.0437,0.016280
2502.9074,0.016538
2504.7710,0.016873
2506.6347,0.017041
2508.4984,0.017014
2510.3620,0.016921
2512.2257,0.016971
2514.0894,0.017218
2515.9530,0.017452
2517.8167,0.017119
2519.6804,0.016879
2521.5440,0.017092
2523.4077,0.017595
2525.2714,0.017397
2527.1351,0.017497
2528.9987,0.017845
2530.8624,0.018065
2532.7261,0.018023
2534.5897,0.018311
2536.4534,0.018723
2538.3171,0.018818
2540.1807,0.018774
2542.0444,0.018760
2543.9081,0.018681
2545.7717,0.019031
2547.6354,0.019105
2549.4991,0.019006
2551.3627,0.019194
2553.2264,0.019585
2555.0901,0.019944
2556.9538,0.020154
2558.8174,0.020079
2560.6811,0.020127
2562.5448,0.020382
2564.4084,0.020478
2566.2721,0.020496
2568.1358,0.020671
2569.9994,0.020825
2571.8631,0.021241
2573.7268,0.021198
2575.5904,0.021101
2577.4541,0.021421
2579.3178,0.021689
2581.1815,0.021995
2583.0451,0.022239
2584.9088,0.022337
2586.7725,0.022475
2588.6361,0.022550
2590.4998,0.022912
2592.3635,0.023396
2594.2271,0.023565
2596.0908,0.023413
2597.9545,0.023719
2599.8181,0.024139
2601.6818,0.024320
2603.5455,0.024386
2605.4091,0.024615
2607.2728,0.024854
2609.1365,0.025362
2611.0002,0.025791
2612.8638,0.025876
2614.7275,0.025852
2616.5912,0.026239
2618.4548,0.026402
2620.3185,0.026692
2622.1822,0.027105
2624.0458,0.027346
2625.9095,0.027598
2627.7732,0.027902
2629.6368,0.028066
2631.5005,0.028273
2633.3642,0.028486
2635.2279,0.028757
2637.0915,0.029099
2638.9552,0.029355
2640.8189,0.029443
2642.6825,0.029743
2644.5462,0.030093
2646.4099,0.030237
2648.2735,0.030479
2650.1372,0.030890
2652.0009,0.031101
2653.8645,0.031305
2655.7282,0.031501
2657.5919,0.031711
2659.4555,0.031990
2661.3192,0.032238
2663.1829,0.032259
2665.0466,0.032296
2666.9102,0.032496
2668.7739,0.032966
2670.6376,0.033353
2672.5012,0.033676
2674.3649,0.033895
2676.2286,0.034026
2678.0922,0.034113
2679.9559,0.034433
2681.8196,0.034733
2683.6832,0.034986
2685.5469,0.035229
2687.4106,0.035507
2689.2742,0.035924
2691.1379,0.036281
2693.0016,0.036547
2694.8653,0.037080
2696.7289,0.037451
2698.5926,0.037646
2700.4563,0.037917
2702.3199,0.038463
2704.1836,0.038864
2706.0473,0.039198
2707.9109,0.039539
2709.7746,0.039873
2711.6383,0.040241
2713.5019,0.040721
2715.3656,0.041126
2717.2293,0.041603
2719.0930,0.042009
2720.9566,0.042489
2722.8203,0.043025
2724.6840,0.043604
2726.5476,0.044023
2728.4113,0.044324
2730.2750,0.044772
2732.1386,0.045545
2734.0023,0.045957
2735.8660,0.046119
2737.7296,0.046488
2739.5933,0.047030
2741.4570,0.047530
2743.3206,0.048084
2745.1843,0.048742
2747.0480,0.049353
2748.9117,0.049619
2750.7753,0.050086
2752.6390,0.050775
2754.5027,0.051292
2756.3663,0.051650
2758.2300,0.052208
2760.0937,0.052771
2761.9573,0.053348
2763.8210,0.053987
2765.6847,0.054599
2767.5483,0.055044
2769.4120,0.055515
2771.2757,0.056173
2773.1394,0.056880
2775.0030,0.057345
2776.8667,0.057835
2778.7304,0.058439
2780.5940,0.059177
2782.4577,0.059885
2784.3214,0.060560
2786.1850,0.061330
2788.0487,0.062057
2789.9124,0.062541
2791.7760,0.062975
2793.6397,0.063646
2795.5034,0.064416
2797.3670,0.065187
2799.2307,0.065881
2801.0944,0.066396
2802.9581,0.067164
2804.8217,0.068029
2806.6854,0.068780
2808.5491,0.069518
2810.4127,0.070249
2812.2764,0.070965
2814.1401,0.071721
2816.0037,0.072345
2817.8674,0.073272
2819.7311,0.074183
2821.5947,0.074659
2823.4584,0.075262
2825.3221,0.076248
2827.1857,0.077179
2829.0494,0.078000
2830.9131,0.078992
2832.7768,0.080164
2834.6404,0.081076
2836.5041,0.082035
2838.3678,0.083394
2840.2314,0.084774
2842.0951,0.086197
2843.9588,0.087924
2845.8224,0.089756
2847.6861,0.091613
2849.5498,0.093104
2851.4134,0.094313
2853.2771,0.095143
2855.1408,0.095511
2857.0045,0.095721
2858.8681,0.096229
2860.7318,0.096838
2862.5955,0.097643
2864.4591,0.098845
2866.3228,0.100121
2868.1865,0.101563
2870.0501,0.102992
2871.9138,0.103738
2873.7775,0.104055
2875.6411,0.104379
2877.5048,0.104726
2879.3685,0.104892
2881.2321,0.105229
2883.0958,0.105711
2884.9595,0.106186
2886.8232,0.106833
2888.6868,0.107344
2890.5505,0.107927
2892.4142,0.108870
2894.2778,0.109743
2896.1415,0.110751
2898.0052,0.111861
2899.8688,0.112874
2901.7325,0.114093
2903.5962,0.115589
2905.4598,0.116841
2907.3235,0.118039
2909.1872,0.119804
2911.0509,0.121903
2912.9145,0.123852
2914.7782,0.125592
2916.6419,0.127053
2918.5055,0.128671
2920.3692,0.130321
2922.2329,0.131336
2924.0965,0.131964
2925.9602,0.132427
2927.8239,0.132835
2929.6875,0.132962
2931.5512,0.132847
2933.4149,0.132928
2935.2785,0.133006
2937.1422,0.132945
2939.0059,0.132384
2940.8696,0.131755
2942.7332,0.132066
2944.5969,0.132537
2946.4606,0.132867
2948.3242,0.133501
2950.1879,0.134355
2952.0516,0.135382
2953.9152,0.136321
2955.7789,0.136987
2957.6426,0.137694
2959.5062,0.138219
2961.3699,0.138589
2963.2336,0.138768
2965.0972,0.138453
2966.9609,0.137649
2968.8246,0.136859
2970.6883,0.136275
2972.5519,0.136055
2974.4156,0.135897
2976.2793,0.135158
2978.1429,0.134385
2980.0066,0.134254
2981.8703,0.134158
2983.7339,0.133874
2985.5976,0.133651
2987.4613,0.133683
2989.3249,0.133851
2991.1886,0.134082
2993.0523,0.134358
2994.9160,0.134935
2996.7796,0.135790
2998.6433,0.136386
3000.5070,0.136841
3002.3706,0.137739
3004.2343,0.138752
3006.0980,0.140029
3007.9616,0.141187
3009.8253,0.142274
3011.6890,0.143629
3013.5526,0.145156
3015.4163,0.146121
3017.2800,0.146931
3019.1436,0.148244
3021.0073,0.149938
3022.8710,0.151245
3024.7347,0.152428
3026.5983,0.153701
3028.4620,0.155207
3030.3257,0.156569
3032.1893,0.158016
3034.0530,0.159399
3035.9167,0.160710
3037.7803,0.161914
3039.6440,0.163183
3041.5077,0.164464
3043.3713,0.166207
3045.2350,0.167479
3047.0987,0.168623
3048.9624,0.169974
3050.8260,0.171132
3052.6897,0.172205
3054.5534,0.173655
3056.4170,0.174941
3058.2807,0.175854
3060.1444,0.176783
3062.0080,0.178114
3063.8717,0.179067
3065.7354,0.180276
3067.5990,0.181322
3069.4627,0.181972
3071.3264,0.182464
3073.1900,0.183334
3075.0537,0.184332
3076.9174,0.185379
3078.7811,0.185874
3080.6447,0.185999
3082.5084,0.186307
3084.3721,0.186821
3086.2357,0.187416
3088.0994,0.188210
3089.9631,0.188419
3091.8267,0.188770
3093.6904,0.189059
3095.5541,0.189677
3097.4177,0.190781
3099.2814,0.192003
3101.1451,0.192377
3103.0087,0.192388
3104.8724,0.192734
3106.7361,0.194278
3108.5998,0.195518
3110.4634,0.196080
3112.3271,0.196615
3114.1908,0.197922
3116.0544,0.199165
3117.9181,0.200329
3119.7818,0.201278
3121.6454,0.202480
3123.5091,0.203491
3125.3728,0.204615
3127.2364,0.206074
3129.1001,0.207999
3130.9638,0.209551
3132.8275,0.211042
3134.6911,0.212411
3136.5548,0.213989
3138.4185,0.215439
3140.2821,0.217218
3142.1458,0.218619
3144.0095,0.220579
3145.8731,0.222401
3147.7368,0.224222
3149.6005,0.225818
3151.4641,0.228251
3153.3278,0.230210
3155.1915,0.231686
3157.0551,0.232995
3158.9188,0.234660
3160.7825,0.236421
3162.6462,0.238859
3164.5098,0.240436
3166.3735,0.241946
3168.2372,0.243839
3170.1008,0.245705
3171.9645,0.246615
3173.8282,0.248516
3175.6918,0.250749
3177.5555,0.253006
3179.4192,0.254064
3181.2828,0.255186
3183.1465,0.256711
3185.0102,0.258621
3186.8739,0.259911
3188.7375,0.261706
3190.6012,0.262670
3192.4649,0.263741
3194.3285,0.265014
3196.1922,0.266616
3198.0559,0.267666
3199.9195,0.269055
3201.7832,0.270093
3203.6469,0.271544
3205.5105,0.272330
3207.3742,0.273752
3209.2379,0.274401
3211.1015,0.275448
3212.9652,0.276016
3214.8289,0.276923
3216.6926,0.277854
3218.5562,0.279242
3220.4199,0.279730
3222.2836,0.280696
3224.1472,0.281463
3226.0109,0.282118
3227.8746,0.282042
3229.7382,0.283219
3231.6019,0.284089
3233.4656,0.285803
3235.3292,0.286409
3237.1929,0.286301
3239.0566,0.286409
3240.9202,0.288115
3242.7839,0.289272
3244.6476,0.290322
3246.5113,0.290920
3248.3749,0.291761
3250.2386,0.291485
3252.1023,0.292383
3253.9659,0.293201
3255.8296,0.293756
3257.6933,0.293742
3259.5569,0.294781
3261.4206,0.295581
3263.2843,0.296467
3265.1479,0.296387
3267.0116,0.296902
3268.8753,0.296341
3270.7390,0.296033
3272.6026,0.295937
3274.4663,0.296749
3276.3300,0.296067
3278.1936,0.295951
3280.0573,0.295511
3281.9210,0.294755
3283.7846,0.293275
3285.6483,0.293196
3287.5120,0.292374
3289.3756,0.292109
3291.2393,0.290594
3293.1030,0.289676
3294.9666,0.288881
3296.8303,0.288504
3298.6940,0.286625
3300.5577,0.285683
3302.4213,0.284097
3304.2850,0.283779
3306.1487,0.283013
3308.0123,0.282136
3309.8760,0.280396
3311.7397,0.279602
3313.6033,0.279348
3315.4670,0.279487
3317.3307,0.278269
3319.1943,0.277353
3321.0580,0.275514
3322.9217,0.275091
3324.7854,0.274189
3326.6490,0.273827
3328.5127,0.273483
3330.3764,0.274170
3332.2400,0.273806
3334.1037,0.273439
3335.9674,0.272748
3337.8310,0.272902
3339.6947,0.271207
3341.5584,0.271281
3343.4220,0.271734
3345.2857,0.271439
3347.1494,0.269775
3349.0130,0.269168
3350.8767,0.268626
3352.7404,0.269086
3354.6041,0.268541
3356.4677,0.268288
3358.3314,0.267346
3360.1951,0.267553
3362.0587,0.267111
3363.9224,0.266456
3365.7861,0.264978
3367.6497,0.264635
3369.5134,0.263727
3371.3771,0.264024
3373.2407,0.263681
3375.1044,0.263371
3376.9681,0.261974
3378.8317,0.261677
3380.6954,0.260633
3382.5591,0.260325
3384.4228,0.259396
3386.2864,0.258332
3388.1501,0.256849
3390.0138,0.255743
3391.8774,0.254228
3393.7411,0.254909
3395.6048,0.253909
3397.4684,0.253095
3399.3321,0.251498
3401.1958,0.250548
3403.0594,0.249265
3404.9231,0.248399
3406.7868,0.247034
3408.6505,0.246055
3410.5141,0.243778
3412.3778,0.243009
3414.2415,0.242043
3416.1051,0.241250
3417.9688,0.238173
3419.8325,0.236709
3421.6961,0.235480
3423.5598,0.234787
3425.4235,0.233015
3427.2871,0.231212
3429.1508,0.228329
3431.0145,0.227415
3432.8781,0.226185
3434.7418,0.224998
3436.6055,0.224147
3438.4692,0.224052
3440.3328,0.221698
3442.1965,0.219638
3444.0602,0.217785
3445.9238,0.216622
3447.7875,0.214692
3449.6512,0.213773
3451.5148,0.211043
3453.3785,0.208613
3455.2422,0.206981
3457.1058,0.205944
3458.9695,0.203576
3460.8332,0.201918
3462.6969,0.200195
3464.5605,0.198717
3466.4242,0.195926
3468.2879,0.194075
3470.1515,0.192971
3472.0152,0.192740
3473.8789,0.190817
3475.7425,0.188802
3477.6062,0.185958
3479.4699,0.183804
3481.3335,0.182380
3483.1972,0.181456
3485.0609,0.178489
3486.9245,0.176171
3488.7882,0.175359
3490.6519,0.174604
3492.5156,0.171604
3494.3792,0.169472
3496.2429,0.166707
3498.1066,0.164780
3499.9702,0.162921
3501.8339,0.161726
3503.6976,0.160276
3505.5612,0.159120
3507.4249,0.156765
3509.2886,0.154844
3511.1522,0.152580
3513.0159,0.150638
3514.8796,0.148327
3516.7432,0.146883
3518.6069,0.145031
3520.4706,0.143322
3522.3343,0.140536
3524.1979,0.138898
3526.0616,0.136778
3527.9253,0.134836
3529.7889,0.132685
3531.6526,0.131272
3533.5163,0.128451
3535.3799,0.126735
3537.2436,0.124985
3539.1073,0.123101
3540.9709,0.120399
3542.8346,0.118600
3544.6983,0.117299
3546.5620,0.116067
3548.4256,0.113625
3550.2893,0.111779
3552.1530,0.110030
3554.0166,0.108204
3555.8803,0.105680
3557.7440,0.103820
3559.6076,0.101697
3561.4713,0.100292
3563.3350,0.099004
3565.1986,0.097705
3567.0623,0.095850
3568.9260,0.094036
3570.7896,0.091795
3572.6533,0.089430
3574.5170,0.087214
3576.3807,0.085659
3578.2443,0.084316
3580.1080,0.082818
3581.9717,0.080081
3583.8353,0.078790
3585.6990,0.077397
3587.5627,0.076293
3589.4263,0.074786
3591.2900,0.072591
3593.1537,0.070527
3595.0173,0.069186
3596.8810,0.067974
3598.7447,0.066748
3600.6084,0.064775
3602.4720,0.063393
3604.3357,0.061680
3606.1994,0.059889
3608.0630,0.058483
3609.9267,0.057006
3611.7904,0.054958
3613.6540,0.053607
3615.5177,0.052497
3617.3814,0.051032
3619.2450,0.049076
3621.1087,0.047317
3622.9724,0.045405
3624.8360,0.043612
3626.6997,0.041887
3628.5634,0.040381
3630.4271,0.038848
3632.2907,0.037549
3634.1544,0.035975
3636.0181,0.034625
3637.8817,0.033346
3639.7454,0.031769
3641.6091,0.030478
3643.4727,0.029861
3645.3364,0.028729
3647.2001,0.026339
3649.0637,0.023382
3650.9274,0.021308
3652.7911,0.019967
3654.6547,0.019373
3656.5184,0.018525
3658.3821,0.016633
3660.2458,0.015029
3662.1094,0.014469
3663.9731,0.013564
3665.8368,0.012329
3667.7004,0.011316
3669.5641,0.009892
3671.4278,0.007417
3673.2914,0.005903
3675.1551,0.004926
3677.0188,0.004130
3678.8824,0.003430
3680.7461,0.002740
3682.6098,0.001892
3684.4735,0.001588
3686.3371,0.001562
3688.2008,0.000710
3690.0645,-0.001250
3691.9281,-0.002536
3693.7918,-0.002350
3695.6555,-0.002457
3697.5191,-0.002713
3699.3828,-0.003031
3701.2465,-0.003714
3703.1101,-0.004241
3704.9738,-0.004592
3706.8375,-0.004680
3708.7011,-0.005065
3710.5648,-0.005465
3712.4285,-0.006242
3714.2922,-0.006901
3716.1558,-0.006394
3718.0195,-0.006137
3719.8832,-0.006332
3721.7468,-0.006462
3723.6105,-0.006842
3725.4742,-0.007125
3727.3378,-0.007118
3729.2015,-0.006924
3731.0652,-0.006780
3732.9288,-0.006898
3734.7925,-0.007658
3736.6562,-0.008492
3738.5199,-0.008383
3740.3835,-0.007715
3742.2472,-0.007703
3744.1109,-0.008370
3745.9745,-0.008388
3747.8382,-0.007935
3749.7019,-0.008373
3751.5655,-0.009394
3753.4292,-0.009774
3755.2929,-0.009148
3757.1565,-0.008449
3759.0202,-0.008739
3760.8839,-0.009258
3762.7475,-0.008879
3764.6112,-0.008419
3766.4749,-0.008301
3768.3386,-0.008691
3770.2022,-0.009148
3772.0659,-0.009335
3773.9296,-0.009005
3775.7932,-0.008535
3777.6569,-0.008644
3779.5206,-0.009385
3781.3842,-0.009857
3783.2479,-0.009638
3785.1116,-0.009348
3786.9752,-0.009537
3788.8389,-0.009415
3790.7026,-0.009078
3792.5662,-0.008849
3794.4299,-0.008711
3796.2936,-0.009134
3798.1573,-0.009643
3800.0209,-0.009761
3801.8846,-0.010120
3803.7483,-0.010180
3805.6119,-0.009714
3807.4756,-0.009737
3809.3393,-0.009951
3811.2029,-0.009421
3813.0666,-0.008806
3814.9303,-0.009075
3816.7939,-0.009361
3818.6576,-0.009131
3820.5213,-0.009685
3822.3850,-0.010650
3824.2486,-0.010613
3826.1123,-0.009960
3827.9760,-0.009786
3829.8396,-0.009845
3831.7033,-0.009496
3833.5670,-0.009547
3835.4306,-0.009720
3837.2943,-0.009940
3839.1580,-0.010730
3841.0216,-0.010896
3842.8853,-0.010361
3844.7490,-0.009865
3846.6126,-0.009657
3848.4763,-0.009145
3850.3400,-0.008980
3852.2037,-0.009735
3854.0673,-0.011090
3855.9310,-0.011200
3857.7947,-0.010610
3859.6583,-0.010278
3861.5220,-0.010044
3863.3857,-0.009774
3865.2493,-0.009966
3867.1130,-0.010017
3868.9767,-0.010064
3870.8403,-0.010274
3872.7040,-0.010331
3874.5677,-0.010177
3876.4314,-0.010252
3878.2950,-0.009854
3880.1587,-0.009774
3882.0224,-0.009988
3883.8860,-0.009964
3885.7497,-0.010328
3887.6134,-0.010788
3889.4770,-0.010194
3891.3407,-0.009605
3893.2044,-0.009766
3895.0680,-0.010063
3896.9317,-0.009651
3898.7954,-0.009624
3900.6590,-0.010307
3902.5227,-0.010609
3904.3864,-0.010419
3906.2501,-0.010224
3908.1137,-0.009939
3909.9774,-0.009843
3911.8411,-0.009787
3913.7047,-0.009844
3915.5684,-0.010066
3917.4321,-0.010238
3919.2957,-0.010092
3921.1594,-0.009955
3923.0231,-0.009842
3924.8867,-0.009681
3926.7504,-0.009474
3928.6141,-0.009457
3930.4777,-0.009482
3932.3414,-0.009644
3934.2051,-0.010221
3936.0688,-0.010195
3937.9324,-0.009641
3939.7961,-0.009766
3941.6598,-0.009759
3943.5234,-0.009700
3945.3871,-0.009651
3947.2508,-0.009739
3949.1144,-0.009809
3950.9781,-0.009408
3952.8418,-0.009242
3954.7054,-0.009535
3956.5691,-0.009519
3958.4328,-0.009323
3960.2965,-0.009084
3962.1601,-0.009339
3964.0238,-0.009852
3965.8875,-0.010013
3967.7511,-0.009537
3969.6148,-0.009305
3971.4785,-0.009442
3973.3421,-0.009371
3975.2058,-0.009407
3977.0695,-0.009754
3978.9331,-0.009709
3980.7968,-0.009475
3982.6605,-0.009376
3984.5241,-0.009570
3986.3878,-0.009747
3988.2515,-0.009863
3990.1152,-0.009702
3991.9788,-0.009520
3993.8425,-0.009498
3995.7062,-0.009639
3997.5698,-0.009690
3999.4335,-0.009605
